PAT9000 PMD Jones-Matrix-Measurement   ThorLabs GmbH
Date: 01-01-1997    Time: 01:45:44
[FIBRE]
FIBRE_LENGTH [km]: 1.000
[WAVELENGTH]
START        [nm]: 1530.000
STOP         [nm]: 1549.000
STEP         [nm]:    0.250
POINTS           :       77
[PMD_DATA]
PMD_MIN      [ps]:    1.548
PMD_MAX      [ps]:    3.913
PMD_AVG      [ps]:    2.611
PMD_RMS      [ps]:    2.659
PMD_SKM  [ps/skm]:    2.659
LAMBDA [nm]        PMD [ps]       PSPout s1           s2           s3
   1530.000,          1.583,        0.447,        0.375,        0.812,
   1530.250,          1.583,        0.447,        0.375,        0.812,
   1530.500,          1.548,        0.217,        0.203,        0.955,
   1530.750,          1.590,        0.002,       -0.028,        1.000,
   1531.000,          1.579,       -0.170,       -0.288,        0.942,
   1531.250,          1.683,       -0.294,       -0.559,        0.775,
   1531.500,          1.737,       -0.324,       -0.777,        0.540,
   1531.750,          1.808,       -0.273,       -0.930,        0.248,
   1532.000,          1.819,       -0.131,       -0.991,       -0.030,
   1532.250,          2.006,        0.056,       -0.963,       -0.262,
   1532.500,          2.064,        0.277,       -0.858,       -0.432,
   1532.750,          2.181,        0.505,       -0.700,       -0.506,
   1533.000,          2.256,        0.709,       -0.519,       -0.478,
   1533.250,          2.349,        0.868,       -0.340,       -0.363,
   1533.500,          2.459,        0.963,       -0.197,       -0.183,
   1533.750,          2.498,        0.994,       -0.099,        0.037,
   1534.000,          2.600,        0.961,       -0.048,        0.271,
   1534.250,          2.613,        0.879,       -0.077,        0.471,
   1534.500,          2.740,        0.754,       -0.146,        0.640,
   1534.750,          2.714,        0.632,       -0.254,        0.732,
   1535.000,          2.863,        0.484,       -0.383,        0.786,
   1535.250,          2.822,        0.365,       -0.523,        0.771,
   1535.500,          3.013,        0.265,       -0.647,        0.715,
   1535.750,          2.904,        0.195,       -0.751,        0.630,
   1536.000,          3.081,        0.144,       -0.830,        0.538,
   1536.250,          2.934,        0.125,       -0.894,        0.430,
   1536.500,          3.169,        0.124,       -0.936,        0.328,
   1536.750,          3.062,        0.133,       -0.965,        0.227,
   1537.000,          3.182,        0.156,       -0.979,        0.132,
   1537.250,          3.066,        0.179,       -0.983,        0.049,
   1537.500,          3.248,        0.226,       -0.974,       -0.023,
   1537.750,          3.223,        0.266,       -0.959,       -0.097,
   1538.000,          3.248,        0.319,       -0.938,       -0.138,
   1538.250,          3.273,        0.371,       -0.911,       -0.177,
   1538.500,          3.199,        0.403,       -0.896,       -0.186,
   1538.750,          3.276,        0.498,       -0.844,       -0.199,
   1539.000,          3.697,        0.541,       -0.819,       -0.193,
   1539.250,          3.913,        0.595,       -0.780,       -0.194,
   1539.500,          3.710,        0.668,       -0.729,       -0.151,
   1539.750,          3.479,        0.716,       -0.694,       -0.070,
   1540.000,          3.218,        0.751,       -0.660,        0.035,
   1540.250,          2.956,        0.750,       -0.640,        0.170,
   1540.500,          2.713,        0.700,       -0.640,        0.317,
   1540.750,          2.626,        0.609,       -0.653,        0.450,
   1541.000,          2.554,        0.469,       -0.680,        0.563,
   1541.250,          2.527,        0.281,       -0.710,        0.646,
   1541.500,          2.558,        0.054,       -0.754,        0.654,
   1541.750,          2.533,       -0.180,       -0.786,        0.591,
   1542.000,          2.458,       -0.386,       -0.814,        0.435,
   1542.250,          2.453,       -0.552,       -0.802,        0.227,
   1542.500,          2.496,       -0.647,       -0.762,       -0.016,
   1542.750,          2.561,       -0.660,       -0.701,       -0.270,
   1543.000,          2.531,       -0.594,       -0.622,       -0.509,
   1543.250,          2.567,       -0.466,       -0.540,       -0.701,
   1543.500,          2.546,       -0.288,       -0.458,       -0.841,
   1543.750,          2.606,       -0.076,       -0.392,       -0.917,
   1544.000,          2.566,        0.160,       -0.347,       -0.924,
   1544.250,          2.537,        0.389,       -0.326,       -0.862,
   1544.500,          2.478,        0.590,       -0.347,       -0.729,
   1544.750,          2.472,        0.738,       -0.410,       -0.536,
   1545.000,          2.390,        0.808,       -0.502,       -0.308,
   1545.250,          2.383,        0.784,       -0.618,       -0.059,
   1545.500,          2.285,        0.669,       -0.726,        0.158,
   1545.750,          2.333,        0.454,       -0.826,        0.334,
   1546.000,          2.224,        0.178,       -0.895,        0.408,
   1546.250,          2.309,       -0.108,       -0.905,        0.411,
   1546.500,          2.268,       -0.382,       -0.863,        0.332,
   1546.750,          2.370,       -0.599,       -0.776,        0.199,
   1547.000,          2.342,       -0.751,       -0.660,        0.026,
   1547.250,          2.465,       -0.838,       -0.526,       -0.147,
   1547.500,          2.495,       -0.860,       -0.389,       -0.330,
   1547.750,          2.663,       -0.828,       -0.257,       -0.498,
   1548.000,          2.606,       -0.751,       -0.134,       -0.646,
   1548.250,          2.702,       -0.634,       -0.029,       -0.773,
   1548.500,          2.543,       -0.472,        0.041,       -0.881,
   1548.750,          2.901,       -0.342,        0.064,       -0.938,
   1549.000,          3.043,       -0.145,        0.050,       -0.988,
